%OpenBCI Raw EXG Data
%Number of channels = 16
%Sample Rate = 1000 Hz
%Board = OpenBCI_GUI$BoardCytonWifiDaisy
Sample Index, EXG Channel 0, EXG Channel 1, EXG Channel 2, EXG Channel 3, EXG Channel 4, EXG Channel 5, EXG Channel 6, EXG Channel 7, EXG Channel 8, EXG Channel 9, EXG Channel 10, EXG Channel 11, EXG Channel 12, EXG Channel 13, EXG Channel 14, EXG Channel 15, Accel Channel 0, Accel Channel 1, Accel Channel 2, Other, Other, Other, Other, Other, Other, Other, Analog Channel 0, Analog Channel 1, Analog Channel 2, Timestamp, Other, Timestamp (Formatted)
81.0, -187500.02235174447, -187500.02235174447, -138214.89521442595, -118407.60629267768, -187500.02235174447, -187500.02235174447, -187500.02235174447, -187500.02235174447, -187500.02235174447, -187500.02235174447, -187500.02235174447, -187500.02235174447, -187500.02235174447, -187500.02235174447, -187500.02235174447, -187500.02235174447, 0.0, 0.0, 0.0, 192.0, 0.0, 0.0, 0.0, 0.0, 0.0, 0.0, 0.0, 0.0, 0.0, 1.765759095304463E9, 0.0, 2025-12-15 08:38:15.304
82.0, -187500.02235174447, -187500.02235174447, -138393.28448692377, -118433.24374356792, -187500.02235174447, -187500.02235174447, -187500.02235174447, -187500.02235174447, -187500.02235174447, -187500.02235174447, -187500.02235174447, -187500.02235174447, -187500.02235174447, -187500.02235174447, -187500.02235174447, -187500.02235174447, 0.0, 0.0, 0.0, 192.0, 0.0, 0.0, 0.0, 0.0, 0.0, 0.0, 0.0, 0.0, 0.0, 1.765759095304521E9, 0.0, 2025-12-15 08:38:15.304
83.0, -187500.02235174447, -187500.02235174447, -138473.8848774296, -118447.12417687467, -187500.02235174447, -187500.02235174447, -187500.02235174447, -187500.02235174447, -187500.02235174447, -187500.02235174447, -187500.02235174447, -187500.02235174447, -187500.02235174447, -187500.02235174447, -187500.02235174447, -187500.02235174447, 0.0, 0.0, 0.0, 192.0, 0.0, 0.0, 0.0, 0.0, 0.0, 0.0, 0.0, 0.0, 0.0, 1.7657590953045652E9, 0.0, 2025-12-15 08:38:15.304
84.0, -187500.02235174447, -187500.02235174447, -138495.90134571807, -118453.42736881107, -187500.02235174447, -187500.02235174447, -187500.02235174447, -187500.02235174447, -187500.02235174447, -187500.02235174447, -187500.02235174447, -187500.02235174447, -187500.02235174447, -187500.02235174447, -187500.02235174447, -187500.02235174447, 0.0, 0.0, 0.0, 192.0, 0.0, 0.0, 0.0, 0.0, 0.0, 0.0, 0.0, 0.0, 0.0, 1.7657590953046074E9, 0.0, 2025-12-15 08:38:15.304
85.0, -187500.02235174447, -187500.02235174447, -138485.86541245764, -118453.98616242244, -187500.02235174447, -187500.02235174447, -187500.02235174447, -187500.02235174447, -187500.02235174447, -187500.02235174447, -187500.02235174447, -187500.02235174447, -187500.02235174447, -187500.02235174447, -187500.02235174447, -187500.02235174447, 0.0, 0.0, 0.0, 192.0, 0.0, 0.0, 0.0, 0.0, 0.0, 0.0, 0.0, 0.0, 0.0, 1.7657590953046472E9, 0.0, 2025-12-15 08:38:15.304
86.0, -187500.02235174447, -187500.02235174447, -138446.168714305, -118454.54495603383, -187500.02235174447, -187500.02235174447, -187500.02235174447, -187500.02235174447, -187500.02235174447, -187500.02235174447, -187500.02235174447, -187500.02235174447, -187500.02235174447, -187500.02235174447, -187500.02235174447, -187500.02235174447, 0.0, 0.0, 0.0, 192.0, 0.0, 0.0, 0.0, 0.0, 0.0, 0.0, 0.0, 0.0, 0.0, 1.7657590953046856E9, 0.0, 2025-12-15 08:38:15.304
87.0, -187500.02235174447, -187500.02235174447, -138397.64307709254, -118453.04738915533, -187500.02235174447, -187500.02235174447, -187500.02235174447, -187500.02235174447, -187500.02235174447, -187500.02235174447, -187500.02235174447, -187500.02235174447, -187500.02235174447, -187500.02235174447, -187500.02235174447, -187500.02235174447, 0.0, 0.0, 0.0, 192.0, 0.0, 0.0, 0.0, 0.0, 0.0, 0.0, 0.0, 0.0, 0.0, 1.7657590953047245E9, 0.0, 2025-12-15 08:38:15.304
88.0, -187500.02235174447, -187500.02235174447, -138352.67136724846, -118458.0094764244, -187500.02235174447, -187500.02235174447, -187500.02235174447, -187500.02235174447, -187500.02235174447, -187500.02235174447, -187500.02235174447, -187500.02235174447, -187500.02235174447, -187500.02235174447, -187500.02235174447, -187500.02235174447, 0.0, 0.0, 0.0, 192.0, 0.0, 0.0, 0.0, 0.0, 0.0, 0.0, 0.0, 0.0, 0.0, 1.7657590953047605E9, 0.0, 2025-12-15 08:38:15.304
89.0, -187500.02235174447, -187500.02235174447, -138275.98253202232, -118459.35058109173, -187500.02235174447, -187500.02235174447, -187500.02235174447, -187500.02235174447, -187500.02235174447, -187500.02235174447, -187500.02235174447, -187500.02235174447, -187500.02235174447, -187500.02235174447, -187500.02235174447, -187500.02235174447, 0.0, 0.0, 0.0, 192.0, 0.0, 0.0, 0.0, 0.0, 0.0, 0.0, 0.0, 0.0, 0.0, 1.7657590953047872E9, 0.0, 2025-12-15 08:38:15.304
90.0, -187500.02235174447, -187500.02235174447, -138054.92377935932, -118421.53142947334, -187500.02235174447, -187500.02235174447, -187500.02235174447, -187500.02235174447, -187500.02235174447, -187500.02235174447, -187500.02235174447, -187500.02235174447, -187500.02235174447, -187500.02235174447, -187500.02235174447, -187500.02235174447, 0.0, 0.0, 0.0, 192.0, 0.0, 0.0, 0.0, 0.0, 0.0, 0.0, 0.0, 0.0, 0.0, 1.7657590953048527E9, 0.0, 2025-12-15 08:38:15.304
91.0, -187500.02235174447, -187500.02235174447, -137820.05164862296, -118384.31577495525, -187500.02235174447, -187500.02235174447, -187500.02235174447, -187500.02235174447, -187500.02235174447, -187500.02235174447, -187500.02235174447, -187500.02235174447, -187500.02235174447, -187500.02235174447, -187500.02235174447, -187500.02235174447, 0.0, 0.0, 0.0, 192.0, 0.0, 0.0, 0.0, 0.0, 0.0, 0.0, 0.0, 0.0, 0.0, 1.7657590953048756E9, 0.0, 2025-12-15 08:38:15.304
92.0, -187500.02235174447, -187500.02235174447, -137634.06278301033, -118356.97959148641, -187500.02235174447, -187500.02235174447, -187500.02235174447, -187500.02235174447, -187500.02235174447, -187500.02235174447, -187500.02235174447, -187500.02235174447, -187500.02235174447, -187500.02235174447, -187500.02235174447, -187500.02235174447, 0.0, 0.0, 0.0, 192.0, 0.0, 0.0, 0.0, 0.0, 0.0, 0.0, 0.0, 0.0, 0.0, 1.7657590953048973E9, 0.0, 2025-12-15 08:38:15.304
93.0, -187500.02235174447, -187500.02235174447, -137527.28849974734, -118326.96119868294, -187500.02235174447, -187500.02235174447, -187500.02235174447, -187500.02235174447, -187500.02235174447, -187500.02235174447, -187500.02235174447, -187500.02235174447, -187500.02235174447, -187500.02235174447, -187500.02235174447, -187500.02235174447, 0.0, 0.0, 0.0, 192.0, 0.0, 0.0, 0.0, 0.0, 0.0, 0.0, 0.0, 0.0, 0.0, 1.7657590953049195E9, 0.0, 2025-12-15 08:38:15.304
94.0, -187500.02235174447, -187500.02235174447, -137521.65586014462, -118331.677416763, -187500.02235174447, -187500.02235174447, -187500.02235174447, -187500.02235174447, -187500.02235174447, -187500.02235174447, -187500.02235174447, -187500.02235174447, -187500.02235174447, -187500.02235174447, -187500.02235174447, -187500.02235174447, 0.0, 0.0, 0.0, 192.0, 0.0, 0.0, 0.0, 0.0, 0.0, 0.0, 0.0, 0.0, 0.0, 1.7657590953049421E9, 0.0, 2025-12-15 08:38:15.304
95.0, -187500.02235174447, -187500.02235174447, -137574.9200671816, -118369.22834744792, -187500.02235174447, -187500.02235174447, -187500.02235174447, -187500.02235174447, -187500.02235174447, -187500.02235174447, -187500.02235174447, -187500.02235174447, -187500.02235174447, -187500.02235174447, -187500.02235174447, -187500.02235174447, 0.0, 0.0, 0.0, 192.0, 0.0, 0.0, 0.0, 0.0, 0.0, 0.0, 0.0, 0.0, 0.0, 1.7657590953049643E9, 0.0, 2025-12-15 08:38:15.304
96.0, -187500.02235174447, -187500.02235174447, -137606.10075069676, -118363.12632121162, -187500.02235174447, -187500.02235174447, -187500.02235174447, -187500.02235174447, -187500.02235174447, -187500.02235174447, -187500.02235174447, -187500.02235174447, -187500.02235174447, -187500.02235174447, -187500.02235174447, -187500.02235174447, 0.0, 0.0, 0.0, 192.0, 0.0, 0.0, 0.0, 0.0, 0.0, 0.0, 0.0, 0.0, 0.0, 1.765759095304986E9, 0.0, 2025-12-15 08:38:15.304
97.0, -187500.02235174447, -187500.02235174447, -137637.54965514538, -118353.49271935139, -187500.02235174447, -187500.02235174447, -187500.02235174447, -187500.02235174447, -187500.02235174447, -187500.02235174447, -187500.02235174447, -187500.02235174447, -187500.02235174447, -187500.02235174447, -187500.02235174447, -187500.02235174447, 0.0, 0.0, 0.0, 192.0, 0.0, 0.0, 0.0, 0.0, 0.0, 0.0, 0.0, 0.0, 0.0, 1.7657590953050115E9, 0.0, 2025-12-15 08:38:15.305
98.0, -187500.02235174447, -187500.02235174447, -137667.65745492667, -118338.94173371098, -187500.02235174447, -187500.02235174447, -187500.02235174447, -187500.02235174447, -187500.02235174447, -187500.02235174447, -187500.02235174447, -187500.02235174447, -187500.02235174447, -187500.02235174447, -187500.02235174447, -187500.02235174447, 0.0, 0.0, 0.0, 192.0, 0.0, 0.0, 0.0, 0.0, 0.0, 0.0, 0.0, 0.0, 0.0, 1.7657590953050337E9, 0.0, 2025-12-15 08:38:15.305
99.0, -187500.02235174447, -187500.02235174447, -137757.511467637, -118361.56169909975, -187500.02235174447, -187500.02235174447, -187500.02235174447, -187500.02235174447, -187500.02235174447, -187500.02235174447, -187500.02235174447, -187500.02235174447, -187500.02235174447, -187500.02235174447, -187500.02235174447, -187500.02235174447, 0.0, 0.0, 0.0, 192.0, 0.0, 0.0, 0.0, 0.0, 0.0, 0.0, 0.0, 0.0, 0.0, 1.7657590953050556E9, 0.0, 2025-12-15 08:38:15.305
100.0, -187500.02235174447, -187500.02235174447, -137958.72187122368, -118396.4974756834, -187500.02235174447, -187500.02235174447, -187500.02235174447, -187500.02235174447, -187500.02235174447, -187500.02235174447, -187500.02235174447, -187500.02235174447, -187500.02235174447, -187500.02235174447, -187500.02235174447, -187500.02235174447, 0.0, 0.0, 0.0, 192.0, 0.0, 0.0, 0.0, 0.0, 0.0, 0.0, 0.0, 0.0, 0.0, 1.7657590953050783E9, 0.0, 2025-12-15 08:38:15.305
101.0, -187500.02235174447, -187500.02235174447, -136346.91522680703, -119599.87069366821, -187500.02235174447, -187500.02235174447, -187500.02235174447, -187500.02235174447, -187500.02235174447, -187500.02235174447, -187500.02235174447, -187500.02235174447, -187500.02235174447, -187500.02235174447, -187500.02235174447, -187500.02235174447, 0.0, 0.0, 0.0, 192.0, 0.0, 0.0, 0.0, 0.0, 0.0, 0.0, 0.0, 0.0, 0.0, 1.765759095305124E9, 0.0, 2025-12-15 08:38:15.305
102.0, -187500.02235174447, -187500.02235174447, -136149.28110233322, -119568.33238224177, -187500.02235174447, -187500.02235174447, -187500.02235174447, -187500.02235174447, -187500.02235174447, -187500.02235174447, -187500.02235174447, -187500.02235174447, -187500.02235174447, -187500.02235174447, -187500.02235174447, -187500.02235174447, 0.0, 0.0, 0.0, 192.0, 0.0, 0.0, 0.0, 0.0, 0.0, 0.0, 0.0, 0.0, 0.0, 1.7657590953051467E9, 0.0, 2025-12-15 08:38:15.305
103.0, -187500.02235174447, -187500.02235174447, -136070.11122347252, -119556.44125419155, -187500.02235174447, -187500.02235174447, -187500.02235174447, -187500.02235174447, -187500.02235174447, -187500.02235174447, -187500.02235174447, -187500.02235174447, -187500.02235174447, -187500.02235174447, -187500.02235174447, -187500.02235174447, 0.0, 0.0, 0.0, 192.0, 0.0, 0.0, 0.0, 0.0, 0.0, 0.0, 0.0, 0.0, 0.0, 1.7657590953051696E9, 0.0, 2025-12-15 08:38:15.305
104.0, -187500.02235174447, -187500.02235174447, -136070.5806101061, -119558.85524259273, -187500.02235174447, -187500.02235174447, -187500.02235174447, -187500.02235174447, -187500.02235174447, -187500.02235174447, -187500.02235174447, -187500.02235174447, -187500.02235174447, -187500.02235174447, -187500.02235174447, -187500.02235174447, 0.0, 0.0, 0.0, 192.0, 0.0, 0.0, 0.0, 0.0, 0.0, 0.0, 0.0, 0.0, 0.0, 1.7657590953051925E9, 0.0, 2025-12-15 08:38:15.305
105.0, -187500.02235174447, -187500.02235174447, -136099.07908428658, -119564.91256534011, -187500.02235174447, -187500.02235174447, -187500.02235174447, -187500.02235174447, -187500.02235174447, -187500.02235174447, -187500.02235174447, -187500.02235174447, -187500.02235174447, -187500.02235174447, -187500.02235174447, -187500.02235174447, 0.0, 0.0, 0.0, 192.0, 0.0, 0.0, 0.0, 0.0, 0.0, 0.0, 0.0, 0.0, 0.0, 1.765759095305215E9, 0.0, 2025-12-15 08:38:15.305
106.0, -187500.02235174447, -187500.02235174447, -136138.77578243922, -119561.40334146064, -187500.02235174447, -187500.02235174447, -187500.02235174447, -187500.02235174447, -187500.02235174447, -187500.02235174447, -187500.02235174447, -187500.02235174447, -187500.02235174447, -187500.02235174447, -187500.02235174447, -187500.02235174447, 0.0, 0.0, 0.0, 192.0, 0.0, 0.0, 0.0, 0.0, 0.0, 0.0, 0.0, 0.0, 0.0, 1.7657590953052468E9, 0.0, 2025-12-15 08:38:15.305
107.0, -187500.02235174447, -187500.02235174447, -136180.4841375928, -119557.73765536996, -187500.02235174447, -187500.02235174447, -187500.02235174447, -187500.02235174447, -187500.02235174447, -187500.02235174447, -187500.02235174447, -187500.02235174447, -187500.02235174447, -187500.02235174447, -187500.02235174447, -187500.02235174447, 0.0, 0.0, 0.0, 192.0, 0.0, 0.0, 0.0, 0.0, 0.0, 0.0, 0.0, 0.0, 0.0, 1.765759095305273E9, 0.0, 2025-12-15 08:38:15.305
108.0, -187500.02235174447, -187500.02235174447, -136258.69289144193, -119586.57140571732, -187500.02235174447, -187500.02235174447, -187500.02235174447, -187500.02235174447, -187500.02235174447, -187500.02235174447, -187500.02235174447, -187500.02235174447, -187500.02235174447, -187500.02235174447, -187500.02235174447, -187500.02235174447, 0.0, 0.0, 0.0, 192.0, 0.0, 0.0, 0.0, 0.0, 0.0, 0.0, 0.0, 0.0, 0.0, 1.7657590953052962E9, 0.0, 2025-12-15 08:38:15.305
109.0, -187500.02235174447, -187500.02235174447, -136361.66737814754, -119604.1845803481, -187500.02235174447, -187500.02235174447, -187500.02235174447, -187500.02235174447, -187500.02235174447, -187500.02235174447, -187500.02235174447, -187500.02235174447, -187500.02235174447, -187500.02235174447, -187500.02235174447, -187500.02235174447, 0.0, 0.0, 0.0, 192.0, 0.0, 0.0, 0.0, 0.0, 0.0, 0.0, 0.0, 0.0, 0.0, 1.7657590953053184E9, 0.0, 2025-12-15 08:38:15.305
110.0, -187500.02235174447, -187500.02235174447, -136613.0574480364, -119656.10768271777, -187500.02235174447, -187500.02235174447, -187500.02235174447, -187500.02235174447, -187500.02235174447, -187500.02235174447, -187500.02235174447, -187500.02235174447, -187500.02235174447, -187500.02235174447, -187500.02235174447, -187500.02235174447, 0.0, 0.0, 0.0, 192.0, 0.0, 0.0, 0.0, 0.0, 0.0, 0.0, 0.0, 0.0, 0.0, 1.7657590953053577E9, 0.0, 2025-12-15 08:38:15.305
111.0, -187500.02235174447, -187500.02235174447, -136865.87802957036, -119702.64401467371, -187500.02235174447, -187500.02235174447, -187500.02235174447, -187500.02235174447, -187500.02235174447, -187500.02235174447, -187500.02235174447, -187500.02235174447, -187500.02235174447, -187500.02235174447, -187500.02235174447, -187500.02235174447, 0.0, 0.0, 0.0, 192.0, 0.0, 0.0, 0.0, 0.0, 0.0, 0.0, 0.0, 0.0, 0.0, 1.7657590953054247E9, 0.0, 2025-12-15 08:38:15.305
112.0, -187500.02235174447, -187500.02235174447, -137058.37125281946, -119733.64588423324, -187500.02235174447, -187500.02235174447, -187500.02235174447, -187500.02235174447, -187500.02235174447, -187500.02235174447, -187500.02235174447, -187500.02235174447, -187500.02235174447, -187500.02235174447, -187500.02235174447, -187500.02235174447, 0.0, 0.0, 0.0, 192.0, 0.0, 0.0, 0.0, 0.0, 0.0, 0.0, 0.0, 0.0, 0.0, 1.76575909530545E9, 0.0, 2025-12-15 08:38:15.305
113.0, -187500.02235174447, -187500.02235174447, -137143.10671604951, -119752.64486702024, -187500.02235174447, -187500.02235174447, -187500.02235174447, -187500.02235174447, -187500.02235174447, -187500.02235174447, -187500.02235174447, -187500.02235174447, -187500.02235174447, -187500.02235174447, -187500.02235174447, -187500.02235174447, 0.0, 0.0, 0.0, 192.0, 0.0, 0.0, 0.0, 0.0, 0.0, 0.0, 0.0, 0.0, 0.0, 1.7657590953054795E9, 0.0, 2025-12-15 08:38:15.305
114.0, -187500.02235174447, -187500.02235174447, -137163.84913490404, -119759.32803861238, -187500.02235174447, -187500.02235174447, -187500.02235174447, -187500.02235174447, -187500.02235174447, -187500.02235174447, -187500.02235174447, -187500.02235174447, -187500.02235174447, -187500.02235174447, -187500.02235174447, -187500.02235174447, 0.0, 0.0, 0.0, 192.0, 0.0, 0.0, 0.0, 0.0, 0.0, 0.0, 0.0, 0.0, 0.0, 1.7657590953055043E9, 0.0, 2025-12-15 08:38:15.305
115.0, -187500.02235174447, -187500.02235174447, -137148.04645157416, -119758.05398917843, -187500.02235174447, -187500.02235174447, -187500.02235174447, -187500.02235174447, -187500.02235174447, -187500.02235174447, -187500.02235174447, -187500.02235174447, -187500.02235174447, -187500.02235174447, -187500.02235174447, -187500.02235174447, 0.0, 0.0, 0.0, 192.0, 0.0, 0.0, 0.0, 0.0, 0.0, 0.0, 0.0, 0.0, 0.0, 1.7657590953055289E9, 0.0, 2025-12-15 08:38:15.305
116.0, -187500.02235174447, -187500.02235174447, -137102.9182795189, -119755.95292519963, -187500.02235174447, -187500.02235174447, -187500.02235174447, -187500.02235174447, -187500.02235174447, -187500.02235174447, -187500.02235174447, -187500.02235174447, -187500.02235174447, -187500.02235174447, -187500.02235174447, -187500.02235174447, 0.0, 0.0, 0.0, 192.0, 0.0, 0.0, 0.0, 0.0, 0.0, 0.0, 0.0, 0.0, 0.0, 1.7657590953055532E9, 0.0, 2025-12-15 08:38:15.305
117.0, -187500.02235174447, -187500.02235174447, -137055.55493301808, -119756.71288451111, -187500.02235174447, -187500.02235174447, -187500.02235174447, -187500.02235174447, -187500.02235174447, -187500.02235174447, -187500.02235174447, -187500.02235174447, -187500.02235174447, -187500.02235174447, -187500.02235174447, -187500.02235174447, 0.0, 0.0, 0.0, 192.0, 0.0, 0.0, 0.0, 0.0, 0.0, 0.0, 0.0, 0.0, 0.0, 1.7657590953055778E9, 0.0, 2025-12-15 08:38:15.305
118.0, -187500.02235174447, -187500.02235174447, -137008.81743536206, -119761.87613748029, -187500.02235174447, -187500.02235174447, -187500.02235174447, -187500.02235174447, -187500.02235174447, -187500.02235174447, -187500.02235174447, -187500.02235174447, -187500.02235174447, -187500.02235174447, -187500.02235174447, -187500.02235174447, 0.0, 0.0, 0.0, 192.0, 0.0, 0.0, 0.0, 0.0, 0.0, 0.0, 0.0, 0.0, 0.0, 1.765759095305603E9, 0.0, 2025-12-15 08:38:15.305
119.0, -187500.02235174447, -187500.02235174447, -136898.37746600836, -119746.5651925284, -187500.02235174447, -187500.02235174447, -187500.02235174447, -187500.02235174447, -187500.02235174447, -187500.02235174447, -187500.02235174447, -187500.02235174447, -187500.02235174447, -187500.02235174447, -187500.02235174447, -187500.02235174447, 0.0, 0.0, 0.0, 192.0, 0.0, 0.0, 0.0, 0.0, 0.0, 0.0, 0.0, 0.0, 0.0, 1.765759095308803E9, 0.0, 2025-12-15 08:38:15.308
120.0, -187500.02235174447, -187500.02235174447, -136634.89510236922, -119695.51380819248, -187500.02235174447, -187500.02235174447, -187500.02235174447, -187500.02235174447, -187500.02235174447, -187500.02235174447, -187500.02235174447, -187500.02235174447, -187500.02235174447, -187500.02235174447, -187500.02235174447, -187500.02235174447, 0.0, 0.0, 0.0, 192.0, 0.0, 0.0, 0.0, 0.0, 0.0, 0.0, 0.0, 0.0, 0.0, 1.765759095308846E9, 0.0, 2025-12-15 08:38:15.308
121.0, -187500.02235174447, -187500.02235174447, -136372.0385875748, -119643.72481628953, -187500.02235174447, -187500.02235174447, -187500.02235174447, -187500.02235174447, -187500.02235174447, -187500.02235174447, -187500.02235174447, -187500.02235174447, -187500.02235174447, -187500.02235174447, -187500.02235174447, -187500.02235174447, 0.0, 0.0, 0.0, 192.0, 0.0, 0.0, 0.0, 0.0, 0.0, 0.0, 0.0, 0.0, 0.0, 1.7657590953089075E9, 0.0, 2025-12-15 08:38:15.308
122.0, -187500.02235174447, -187500.02235174447, -136165.15084089647, -119601.52472275791, -187500.02235174447, -187500.02235174447, -187500.02235174447, -187500.02235174447, -187500.02235174447, -187500.02235174447, -187500.02235174447, -187500.02235174447, -187500.02235174447, -187500.02235174447, -187500.02235174447, -187500.02235174447, 0.0, 0.0, 0.0, 192.0, 0.0, 0.0, 0.0, 0.0, 0.0, 0.0, 0.0, 0.0, 0.0, 1.7657590953089325E9, 0.0, 2025-12-15 08:38:15.308
123.0, -187500.02235174447, -187500.02235174447, -136089.40077893744, -119595.04271686588, -187500.02235174447, -187500.02235174447, -187500.02235174447, -187500.02235174447, -187500.02235174447, -187500.02235174447, -187500.02235174447, -187500.02235174447, -187500.02235174447, -187500.02235174447, -187500.02235174447, -187500.02235174447, 0.0, 0.0, 0.0, 192.0, 0.0, 0.0, 0.0, 0.0, 0.0, 0.0, 0.0, 0.0, 0.0, 1.7657590953089588E9, 0.0, 2025-12-15 08:38:15.308
124.0, -187500.02235174447, -187500.02235174447, -136093.35703770604, -119601.6811849691, -187500.02235174447, -187500.02235174447, -187500.02235174447, -187500.02235174447, -187500.02235174447, -187500.02235174447, -187500.02235174447, -187500.02235174447, -187500.02235174447, -187500.02235174447, -187500.02235174447, -187500.02235174447, 0.0, 0.0, 0.0, 192.0, 0.0, 0.0, 0.0, 0.0, 0.0, 0.0, 0.0, 0.0, 0.0, 1.7657590953192196E9, 0.0, 2025-12-15 08:38:15.319
125.0, -187500.02235174447, -187500.02235174447, -136125.70001193287, -119612.49942928547, -187500.02235174447, -187500.02235174447, -187500.02235174447, -187500.02235174447, -187500.02235174447, -187500.02235174447, -187500.02235174447, -187500.02235174447, -187500.02235174447, -187500.02235174447, -187500.02235174447, -187500.02235174447, 0.0, 0.0, 0.0, 192.0, 0.0, 0.0, 0.0, 0.0, 0.0, 0.0, 0.0, 0.0, 0.0, 1.7657590953192775E9, 0.0, 2025-12-15 08:38:15.319
