%OpenBCI Raw EXG Data
%Number of channels = 16
%Sample Rate = 500 Hz
%Board = OpenBCI_GUI$BoardCytonWifiDaisy
Sample Index, EXG Channel 0, EXG Channel 1, EXG Channel 2, EXG Channel 3, EXG Channel 4, EXG Channel 5, EXG Channel 6, EXG Channel 7, EXG Channel 8, EXG Channel 9, EXG Channel 10, EXG Channel 11, EXG Channel 12, EXG Channel 13, EXG Channel 14, EXG Channel 15, Accel Channel 0, Accel Channel 1, Accel Channel 2, Other, Other, Other, Other, Other, Other, Other, Analog Channel 0, Analog Channel 1, Analog Channel 2, Timestamp, Other, Timestamp (Formatted)
188.0, -110605.68518706385, -187500.02235174447, -187500.02235174447, -187500.02235174447, -184332.82486591637, -187267.74302336492, -187500.02235174447, -187500.02235174447, -184418.02971578, -106883.11390675473, -185684.97129499572, -187500.02235174447, -187500.02235174447, -181063.0775765273, -187500.02235174447, -187500.02235174447, 0.0, 0.0, 0.0, 192.0, 0.0, 0.0, 0.0, 0.0, 0.0, 0.0, 0.0, 0.0, 0.0, 1.7657808170384047E9, 0.0, 2025-12-15 14:40:17.038
189.0, -110615.63171334646, -187500.02235174447, -187500.02235174447, -187500.02235174447, -184225.9388239311, -187500.02235174447, -187500.02235174447, -187500.02235174447, -184335.99881362903, -107006.47318440357, -185937.16602768493, -187500.02235174447, -187500.02235174447, -181379.93590592575, -187500.02235174447, -187500.02235174447, 0.0, 0.0, 0.0, 192.0, 0.0, 0.0, 0.0, 0.0, 0.0, 0.0, 0.0, 0.0, 0.0, 1.7657808170384395E9, 0.0, 2025-12-15 14:40:17.038
190.0, -110787.80720088568, -187500.02235174447, -187500.02235174447, -187500.02235174447, -184463.44846051317, -187500.02235174447, -187500.02235174447, -187500.02235174447, -184366.48659306607, -107281.01966154811, -186041.48161905786, -187500.02235174447, -187500.02235174447, -181758.41799478748, -187500.02235174447, -187500.02235174447, 0.0, 0.0, 0.0, 192.0, 0.0, 0.0, 0.0, 0.0, 0.0, 0.0, 0.0, 0.0, 0.0, 1.765780817038453E9, 0.0, 2025-12-15 14:40:17.038
191.0, -111013.53746813982, -187500.02235174447, -187500.02235174447, -187408.02257156643, -184905.9906489838, -187500.02235174447, -187500.02235174447, -187500.02235174447, -184462.82261166844, -107580.48833376031, -185995.03469407975, -187500.02235174447, -187500.02235174447, -182054.26568439792, -187500.02235174447, -187500.02235174447, 0.0, 0.0, 0.0, 192.0, 0.0, 0.0, 0.0, 0.0, 0.0, 0.0, 0.0, 0.0, 0.0, 1.765780817038464E9, 0.0, 2025-12-15 14:40:17.038
192.0, -111208.28821757893, -187500.02235174447, -187500.02235174447, -186876.38632969695, -185481.01162684103, -187500.02235174447, -187500.02235174447, -187500.02235174447, -184626.50443631466, -107761.69392605948, -185870.13314606348, -187272.12396527815, -187500.02235174447, -182136.16247608216, -187500.02235174447, -187500.02235174447, 0.0, 0.0, 0.0, 192.0, 0.0, 0.0, 0.0, 0.0, 0.0, 0.0, 0.0, 0.0, 0.0, 1.765780817038476E9, 0.0, 2025-12-15 14:40:17.038
193.0, -111227.84599397732, -187500.02235174447, -187500.02235174447, -186476.1559934802, -185847.42377369688, -187314.30170706531, -187500.02235174447, -187500.02235174447, -184706.4566262313, -107782.97278678094, -185709.06647551854, -187050.0593841147, -187500.02235174447, -182062.91580950213, -187500.02235174447, -187500.02235174447, 0.0, 0.0, 0.0, 192.0, 0.0, 0.0, 0.0, 0.0, 0.0, 0.0, 0.0, 0.0, 0.0, 1.7657808170384867E9, 0.0, 2025-12-15 14:40:17.038
194.0, -111003.7474040684, -187500.02235174447, -187500.02235174447, -186425.5516440334, -185761.32485405504, -187123.1272367391, -187500.02235174447, -187500.02235174447, -184614.85917745344, -107638.33464841064, -185611.23289003765, -187500.02235174447, -187500.02235174447, -181901.5362145348, -187500.02235174447, -187500.02235174447, 0.0, 0.0, 0.0, 192.0, 0.0, 0.0, 0.0, 0.0, 0.0, 0.0, 0.0, 0.0, 0.0, 1.7657808170384972E9, 0.0, 2025-12-15 14:40:17.038
195.0, -110547.14596833539, -187500.02235174447, -187500.02235174447, -186767.35452024397, -185275.9343714636, -187121.13793148255, -187500.02235174447, -187500.02235174447, -184355.7130522386, -107346.51027280216, -185631.14829434734, -187500.02235174447, -187500.02235174447, -181708.4394941854, -187500.02235174447, -187500.02235174447, 0.0, 0.0, 0.0, 192.0, 0.0, 0.0, 0.0, 0.0, 0.0, 0.0, 0.0, 0.0, 0.0, 1.7657808170385077E9, 0.0, 2025-12-15 14:40:17.038
196.0, -110036.02862787589, -187500.02235174447, -187500.02235174447, -187389.85060332427, -184576.9282671128, -187339.96150970002, -187500.02235174447, -187500.02235174447, -184030.7857430918, -107028.86963234779, -185823.619165852, -187500.02235174447, -187500.02235174447, -181594.24443176325, -187500.02235174447, -187500.02235174447, 0.0, 0.0, 0.0, 192.0, 0.0, 0.0, 0.0, 0.0, 0.0, 0.0, 0.0, 0.0, 0.0, 1.765780817038518E9, 0.0, 2025-12-15 14:40:17.038
197.0, -159727.73399683644, -187500.02235174447, -119179.30026999715, 58920.27126792327, -141541.9523765984, -139300.4300356424, -138843.98506212057, 58804.06454850013, -144155.85478017986, -142126.51754933805, -143061.04398501446, -142600.64275272403, -141892.1818604686, -143447.59505362454, 58725.14053882844, -143720.6216121461, 0.0, 0.0, 0.0, 192.0, 0.0, 0.0, 0.0, 0.0, 0.0, 0.0, 0.0, 0.0, 0.0, 1.7657808170385275E9, 0.0, 2025-12-15 14:40:17.038
198.0, -159537.23007884386, -187500.02235174447, -118533.15604128315, 58865.4424387744, -141414.45802622533, -138964.46096473467, -137671.72547241754, 58749.43688505136, -146171.37863294824, -142426.72382911728, -145097.33260838184, -144638.7865708812, -143924.71539076752, -145488.46578460524, 58663.13679970942, -143117.75036069757, 0.0, 0.0, 0.0, 192.0, 0.0, 0.0, 0.0, 0.0, 0.0, 0.0, 0.0, 0.0, 0.0, 1.7657808170385368E9, 0.0, 2025-12-15 14:40:17.038
199.0, -159341.8087770711, -187500.02235174447, -118055.74513146224, 58819.04021728518, -141694.43597727251, -138808.98223030358, -137247.80228707817, 58702.92290483986, -147503.02851236207, -142857.30783430432, -146231.5718807664, -145831.85563467213, -145181.44222276716, -146634.59618504002, 58611.146642106374, -142764.97277795945, 0.0, 0.0, 0.0, 192.0, 0.0, 0.0, 0.0, 0.0, 0.0, 0.0, 0.0, 0.0, 0.0, 1.7657808170385451E9, 0.0, 2025-12-15 14:40:17.038
200.0, -159249.56312770405, -187500.02235174447, -118024.02800608016, 58808.91487704693, -142328.2420430472, -138914.59422285488, -137908.36339096588, 58692.529343668146, -147409.62057228334, -143210.4653966982, -145851.56987328173, -145525.12264551196, -144953.16385664511, -146266.86528526133, 58600.17193557882, -142857.0619651153, 0.0, 0.0, 0.0, 192.0, 0.0, 0.0, 0.0, 0.0, 0.0, 0.0, 0.0, 0.0, 0.0, 1.7657808170385542E9, 0.0, 2025-12-15 14:40:17.038
201.0, -159259.75552317567, -187500.02235174447, -118381.03006852033, 58843.62713618603, -142983.1928590766, -139255.12304963148, -139185.67617960885, 58726.95103012932, -146137.76160928747, -143402.1986606358, -144350.94080578577, -144081.91520952169, -143564.91936027043, -144774.5734184472, 58638.59458429749, -143324.34753469797, 0.0, 0.0, 0.0, 192.0, 0.0, 0.0, 0.0, 0.0, 0.0, 0.0, 0.0, 0.0, 0.0, 1.7657808170385628E9, 0.0, 2025-12-15 14:40:17.038
202.0, -159328.82241354257, -187500.02235174447, -118945.6798369503, 58883.167372127464, -143392.76622447566, -139666.41749935359, -140537.44262903245, 58766.290100370665, -144224.8993188023, -143335.97044181472, -142330.7454384262, -142084.16099359526, -141589.36042658813, -142755.02625167684, 58683.47688716375, -143941.479199109, 0.0, 0.0, 0.0, 192.0, 0.0, 0.0, 0.0, 0.0, 0.0, 0.0, 0.0, 0.0, 0.0, 1.765780817038571E9, 0.0, 2025-12-15 14:40:17.038
203.0, -159463.87165354154, -187500.02235174447, -119590.01357436343, 58920.718302812376, -143503.80969092963, -139994.92108761324, -141663.8364391132, 58803.59516186657, -142236.9128152028, -142994.63695223772, -140322.70942005032, -140075.09679497444, -139584.43130069153, -140742.475180921, 58727.53217548516, -144524.6585636924, 0.0, 0.0, 0.0, 192.0, 0.0, 0.0, 0.0, 0.0, 0.0, 0.0, 0.0, 0.0, 0.0, 1.7657808170385823E9, 0.0, 2025-12-15 14:40:17.038
204.0, -159626.90527759853, -187500.02235174447, -120096.54880720959, 58966.74054464586, -143237.26513830008, -140163.6320547619, -142104.21050837167, 58849.70681067787, -140907.54281372344, -142535.88974903701, -139181.4516999068, -138877.51267880353, -138326.2069018134, -139589.37103621615, 58779.90231274394, -144886.55565816828, 0.0, 0.0, 0.0, 192.0, 0.0, 0.0, 0.0, 0.0, 0.0, 0.0, 0.0, 0.0, 0.0, 1.7657808170407443E9, 0.0, 2025-12-15 14:40:17.040
205.0, -159705.76223203685, -187500.02235174447, -120183.47474139629, 58995.14961184855, -142633.79038975126, -140089.64778061485, -141495.86307953158, 58878.24998834729, -141000.4813671686, -142176.74191912913, -139558.5926841012, -139182.16695572936, -138553.23357024594, -139953.9279882822, 58808.87017355802, -144825.60245103866, 0.0, 0.0, 0.0, 192.0, 0.0, 0.0, 0.0, 0.0, 0.0, 0.0, 0.0, 0.0, 0.0, 1.76578081704079E9, 0.0, 2025-12-15 14:40:17.040
206.0, -159665.9314234175, -187500.02235174447, -119867.82340619844, 58966.60643417912, -141992.34002737285, -139770.77779421542, -140245.23827376822, 58850.01973510024, -142271.13333596388, -141983.44403307964, -141061.9933679096, -140627.94484233198, -139943.86970327733, -141448.47738128633, 58777.35421387604, -144378.6793206548, 0.0, 0.0, 0.0, 192.0, 0.0, 0.0, 0.0, 0.0, 0.0, 0.0, 0.0, 0.0, 0.0, 1.7657808170408168E9, 0.0, 2025-12-15 14:40:17.040
207.0, -159540.5604887677, -187500.02235174447, -119313.72366115138, 58912.112881197085, -141570.2720368233, -139355.70589968038, -138872.01414966752, 58795.7273478183, -144186.72253927262, -142036.70824011663, -143091.28589526247, -142633.52216881778, -141928.97283184205, -143476.83113537208, 58717.04920733562, -143751.1317433276, 0.0, 0.0, 0.0, 192.0, 0.0, 0.0, 0.0, 0.0, 0.0, 0.0, 0.0, 0.0, 0.0, 1.7657808170451832E9, 0.0, 2025-12-15 14:40:17.045
208.0, -159333.42687290037, -187500.02235174447, -118658.16934802168, 58847.29282227669, -141432.25001481175, -139008.7621222451, -137698.3464000638, 58731.22021332029, -146188.67888315665, -142361.6579010079, -145115.3034109239, -144658.36669902405, -143950.6657660801, -145504.62609584644, 58644.87542448944, -143137.71046849614, 0.0, 0.0, 0.0, 192.0, 0.0, 0.0, 0.0, 0.0, 0.0, 0.0, 0.0, 0.0, 0.0, 1.7657808170452173E9, 0.0, 2025-12-15 14:40:17.045
209.0, -159138.87728916138, -187500.02235174447, -118182.16659810145, 58807.61847586853, -141716.13952113863, -138859.2289518391, -137278.0889008151, 58691.52351516766, -147545.85445473844, -142841.34868876325, -146279.00228250056, -145879.9789404844, -145234.30409840395, -146679.94787453985, 58600.55191523456, -142789.06795848228, 0.0, 0.0, 0.0, 192.0, 0.0, 0.0, 0.0, 0.0, 0.0, 0.0, 0.0, 0.0, 0.0, 1.7657808170452423E9, 0.0, 2025-12-15 14:40:17.045
210.0, -159055.25941315407, -187500.02235174447, -118156.73031291131, 58809.04898751366, -142364.58597953155, -138975.10039509542, -137950.33996705295, 58692.77521285716, -147484.02952957505, -143234.29235628754, -145931.16443528706, -145605.4771668288, -145038.54752046437, -146344.5375972435, 58600.35074953446, -142889.13671840867, 0.0, 0.0, 0.0, 192.0, 0.0, 0.0, 0.0, 0.0, 0.0, 0.0, 0.0, 0.0, 0.0, 1.7657808170512447E9, 0.0, 2025-12-15 14:40:17.051
211.0, -159043.03300893703, -187500.02235174447, -118491.09005821825, 58826.21512725534, -143006.23750761003, -139296.04909372915, -139210.7101333988, 58709.740186898736, -146210.33772353386, -143415.58735556452, -144428.5907660235, -144160.0792598819, -143648.33607057764, -144850.50229436188, 58620.91435443334, -143335.34459296998, 0.0, 0.0, 0.0, 192.0, 0.0, 0.0, 0.0, 0.0, 0.0, 0.0, 0.0, 0.0, 0.0, 1.7657808170512826E9, 0.0, 2025-12-15 14:40:17.051
212.0, -159114.75975689408, -187500.02235174447, -119057.93029760485, 58868.88460742052, -143427.67964931484, -139713.24440398745, -140573.45128934996, 58752.00733566372, -144312.89813672283, -143348.80034313208, -142421.87350057048, -142176.1160702844, -141685.9423143795, -142844.4555812425, 58669.596453857004, -143959.5841121178, 0.0, 0.0, 0.0, 192.0, 0.0, 0.0, 0.0, 0.0, 0.0, 0.0, 0.0, 0.0, 0.0, 1.765780817051303E9, 0.0, 2025-12-15 14:40:17.051
213.0, -159266.17047383435, -187500.02235174447, -119719.27371254847, 58922.41703539098, -143562.97475850282, -140060.4116988673, -141725.86252997667, 58805.40565316745, -142341.60838623147, -143008.62914426674, -140428.18730213493, -140181.8934299819, -139697.59818286874, -140846.52255136045, 58729.67794295287, -144562.83534322208, 0.0, 0.0, 0.0, 192.0, 0.0, 0.0, 0.0, 0.0, 0.0, 0.0, 0.0, 0.0, 0.0, 1.765780817056851E9, 0.0, 2025-12-15 14:40:17.056
214.0, -159420.95630418733, -187500.02235174447, -120221.69622441486, 58961.64434691005, -143295.84906051744, -140225.1440555029, -142169.4105469478, 58844.655316430966, -140993.26175370952, -142524.22213843133, -139264.89076195846, -138962.94104611172, -138419.34662095865, -139671.2678279004, 58773.93439697438, -144921.42437951858, 0.0, 0.0, 0.0, 192.0, 0.0, 0.0, 0.0, 0.0, 0.0, 0.0, 0.0, 0.0, 0.0, 1.765780817056874E9, 0.0, 2025-12-15 14:40:17.056
215.0, -159477.61797638156, -187500.02235174447, -120291.43366711542, 58966.76289639031, -142674.71643384892, -140132.89840613585, -141549.28374877977, 58849.97503161133, -141048.06823111395, -142133.31247965246, -139602.15623404458, -139227.2057208068, -138606.38601856065, -139996.44100623621, 58780.23758891077, -144845.80842802627, 0.0, 0.0, 0.0, 192.0, 0.0, 0.0, 0.0, 0.0, 0.0, 0.0, 0.0, 0.0, 0.0, 1.7657808170568893E9, 0.0, 2025-12-15 14:40:17.056
216.0, -159443.95624923185, -187500.02235174447, -119985.75120994463, 58943.74059960135, -142038.5857866509, -139822.72324832957, -140310.6171263, 58827.39976971147, -142310.2488887607, -141948.08357335135, -141097.26442066007, -140664.26642707188, -139986.42742472023, -141483.3461026366, 58754.44367580935, -144409.59178323648, 0.0, 0.0, 0.0, 192.0, 0.0, 0.0, 0.0, 0.0, 0.0, 0.0, 0.0, 0.0, 0.0, 1.765780817064262E9, 0.0, 2025-12-15 14:40:17.064
217.0, -159320.7534337942, -187500.02235174447, -119436.56884867775, 58893.78445074373, -141615.48961585638, -139411.652316052, -138941.5951301569, 58777.8236005096, -144222.10535074538, -142018.022181752, -143125.1264363678, -142667.34035817866, -141965.3614718153, -143508.01181888723, 58698.56431467108, -143785.79929897777, 0.0, 0.0, 0.0, 192.0, 0.0, 0.0, 0.0, 0.0, 0.0, 0.0, 0.0, 0.0, 0.0, 1.7657808170642788E9, 0.0, 2025-12-15 14:40:17.064
218.0, -159123.6557511873, -187500.02235174447, -118789.97758507462, 58837.74862739428, -141483.1002334476, -139074.61036141042, -137776.30928472392, 58721.78777716015, -146234.4776075456, -142375.98536920373, -145161.14683880174, -144703.8972024795, -143998.92318235914, -145547.51909345618, 58635.2418226292, -143182.32455042895, 0.0, 0.0, 0.0, 192.0, 0.0, 0.0, 0.0, 0.0, 0.0, 0.0, 0.0, 0.0, 0.0, 1.765780817064289E9, 0.0, 2025-12-15 14:40:17.064
219.0, -158923.67469354568, -187500.02235174447, -118305.23530307238, 58792.66515882793, -141755.72446056898, -138917.56700486745, -137343.64656730255, 58676.7490120827, -147590.4238331823, -142872.1717443671, -146326.58914644588, -145927.07406605175, -145284.57317168394, -146725.81365416214, 58584.726880160204, -142823.66845889908, 0.0, 0.0, 0.0, 192.0, 0.0, 0.0, 0.0, 0.0, 0.0, 0.0, 0.0, 0.0, 0.0, 1.765780817071826E9, 0.0, 2025-12-15 14:40:17.071
220.0, -158819.60497136175, -187500.02235174447, -118255.2568024703, 58776.124867930994, -142379.29342738312, -139010.28204086807, -137986.84036574845, 58660.05225897459, -147518.3618090584, -143259.9074554333, -145970.07882238374, -145643.81040856964, -145077.03722441642, -146381.9097139728, 58567.180760762785, -142897.92095397963, 0.0, 0.0, 0.0, 192.0, 0.0, 0.0, 0.0, 0.0, 0.0, 0.0, 0.0, 0.0, 0.0, 1.76578081707185E9, 0.0, 2025-12-15 14:40:17.071
221.0, -158823.00243651896, -187500.02235174447, -118599.1383909152, 58807.55142063516, -143034.40070562373, -139343.45714371887, -139257.38057582147, 58691.054128534095, -146267.73700329507, -143459.84380958605, -144490.81802258707, -144222.284164701, -143711.3232864527, -144909.6003067017, 58602.54122049108, -143355.46116297974, 0.0, 0.0, 0.0, 192.0, 0.0, 0.0, 0.0, 0.0, 0.0, 0.0, 0.0, 0.0, 0.0, 1.7657808170718675E9, 0.0, 2025-12-15 14:40:17.071
222.0, -158901.25589385701, -187500.02235174447, -119168.25850823623, 58855.205339813874, -143462.52601892067, -139765.5921895018, -140627.18488302053, 58738.41747503489, -144374.8795240974, -143390.01695990766, -142487.05118740216, -142242.1654751498, -141754.5174663684, -142907.19692792857, 58655.58191008353, -143982.24878099546, 0.0, 0.0, 0.0, 192.0, 0.0, 0.0, 0.0, 0.0, 0.0, 0.0, 0.0, 0.0, 0.0, 1.765780817074695E9, 0.0, 2025-12-15 14:40:17.074
223.0, -159044.84350023788, -187500.02235174447, -119817.46492594063, 58897.87481997906, -143589.14865125998, -140102.79060635457, -141773.3152834553, 58780.66227205542, -142386.17776467535, -143024.43182759665, -140474.34365443513, -140229.16736950487, -139745.54267472538, -140890.7566536375, 58704.398119973914, -144574.30178812763, 0.0, 0.0, 0.0, 192.0, 0.0, 0.0, 0.0, 0.0, 0.0, 0.0, 0.0, 0.0, 0.0, 1.7657808170747185E9, 0.0, 2025-12-15 14:40:17.074
224.0, -159209.06176675102, -187500.02235174447, -120326.905885566, 58938.823215821176, -143330.1813400008, -140273.66969271537, -142235.0799721575, 58821.789481853186, -141021.58141393441, -142526.47966462132, -139292.49516636078, -138991.88655518135, -138449.54382771777, -139697.218203213, 58751.314431585604, -144941.49624603943, 0.0, 0.0, 0.0, 192.0, 0.0, 0.0, 0.0, 0.0, 0.0, 0.0, 0.0, 0.0, 0.0, 1.765780817074729E9, 0.0, 2025-12-15 14:40:17.074
225.0, -159284.7000699878, -187500.02235174447, -120415.79877326475, 58958.13512303056, -142723.37618152812, -140199.88658426842, -141640.4788661574, 58841.369609996036, -141068.60948426838, -142137.98399424364, -139621.13286508716, -139248.01519489472, -138630.45884733903, -140012.48955875513, 58771.63216729548, -144885.66158839007, 0.0, 0.0, 0.0, 192.0, 0.0, 0.0, 0.0, 0.0, 0.0, 0.0, 0.0, 0.0, 0.0, 1.7657808170808055E9, 0.0, 2025-12-15 14:40:17.080
226.0, -159245.49511021317, -187500.02235174447, -120103.38844101292, 58925.658038337, -142072.7839556675, -139881.7095019471, -140394.97260987433, 58809.09369100258, -142301.41994970082, -141938.02528834646, -141086.22265889915, -140654.96810137847, -139978.6937211387, -141469.01863444076, 58736.115245356, -144442.31473711907, 0.0, 0.0, 0.0, 192.0, 0.0, 0.0, 0.0, 0.0, 0.0, 0.0, 0.0, 0.0, 0.0, 1.7657808170808403E9, 0.0, 2025-12-15 14:40:17.080
227.0, -159131.7470826801, -187500.02235174447, -119557.55884141433, 58876.93123542443, -141645.44095342647, -139473.63370342657, -139023.24605265213, 58760.72451600129, -144207.35319940487, -142015.58584160637, -143108.96612512664, -142652.61055858262, -141950.27404430797, -143491.8738593905, 58682.02402377415, -143822.4561598845, 0.0, 0.0, 0.0, 192.0, 0.0, 0.0, 0.0, 0.0, 0.0, 0.0, 0.0, 0.0, 0.0, 1.7657808170808516E9, 0.0, 2025-12-15 14:40:17.080
228.0, -158939.38796989777, -187500.02235174447, -118910.29702547754, 58821.297743475174, -141505.38492266953, -139136.9940801852, -137848.70658501468, 58705.314541496584, -146220.03838062746, -142385.52956408614, -145147.0652397949, -144690.7990802287, -143984.39454846317, -145532.6998868823, 58619.327380577015, -143218.1543967908, 0.0, 0.0, 0.0, 192.0, 0.0, 0.0, 0.0, 0.0, 0.0, 0.0, 0.0, 0.0, 0.0, 1.7657808170941432E9, 0.0, 2025-12-15 14:40:17.094
229.0, -158741.5750314683, -187500.02235174447, -118419.58682770573, 58775.27550164169, -141768.44260316403, -138975.92740964025, -137398.69891389596, 58659.31465140756, -147585.95348429127, -142894.63524754468, -146323.95164060016, -145924.72713288394, -145280.72867163763, -146720.35982851504, 58567.69485088526, -142853.44098251357, 0.0, 0.0, 0.0, 192.0, 0.0, 0.0, 0.0, 0.0, 0.0, 0.0, 0.0, 0.0, 0.0, 1.7657808170941691E9, 0.0, 2025-12-15 14:40:17.094
230.0, -158657.46541708297, -187500.02235174447, -118374.79393181729, 58767.98883294927, -142399.25353518172, -139076.8231841115, -138040.05986929656, 58651.82681701503, -147539.26069012412, -143304.05215073255, -145993.2575813839, -145667.25738850326, -145100.9982944725, -146403.12151946087, 58559.17883624779, -142934.10842825274, 0.0, 0.0, 0.0, 192.0, 0.0, 0.0, 0.0, 0.0, 0.0, 0.0, 0.0, 0.0, 0.0, 1.7657808170941868E9, 0.0, 2025-12-15 14:40:17.094
231.0, -158662.1592834186, -187500.02235174447, -118705.95737766712, 58791.25699892724, -143045.509522618, -139400.6999612689, -139294.8868030175, 58674.75970682618, -146292.74860534057, -143498.95936238283, -144516.9695635998, -144248.7486301361, -143735.93255709799, -144935.1707023586, 58585.55389470505, -143378.99754989118, 0.0, 0.0, 0.0, 192.0, 0.0, 0.0, 0.0, 0.0, 0.0, 0.0, 0.0, 0.0, 0.0, 1.7657808170942013E9, 0.0, 2025-12-15 14:40:17.094
232.0, -158736.43413024358, -187500.02235174447, -119258.76072153577, 58826.17042376643, -143460.44730668634, -139809.4463121231, -140648.95548211999, 58709.47196596527, -144389.45286148225, -143412.27929738513, -142501.91509746495, -142257.61053056843, -141764.15106822862, -142921.21147170206, 58626.61404926945, -143991.12242354424, 0.0, 0.0, 0.0, 192.0, 0.0, 0.0, 0.0, 0.0, 0.0, 0.0, 0.0, 0.0, 0.0, 1.7657808170942118E9, 0.0, 2025-12-15 14:40:17.094
